

wavelength(nm), Y
1580.59, -39.3182
1580.53, -39.3263
1580.47, -39.3343
1580.4, -39.3424
1580.34, -39.3504
1580.28, -39.3585
1580.22, -39.3666
1580.16, -39.3747
1580.09, -39.3828
1580.03, -39.3909
1579.97, -39.399
1579.91, -39.4071
1579.84, -39.4152
1579.78, -39.4233
1579.72, -39.4315
1579.66, -39.4396
1579.59, -39.4478
1579.53, -39.4559
1579.47, -39.4641
1579.41, -39.4723
1579.35, -39.4804
1579.28, -39.4886
1579.22, -39.4968
1579.16, -39.505
1579.1, -39.5132
1579.03, -39.5215
1578.97, -39.5297
1578.91, -39.5369
1578.85, -39.5434
1578.78, -39.5499
1578.72, -39.5564
1578.66, -39.5629
1578.6, -39.5694
1578.54, -39.5759
1578.47, -39.5825
1578.41, -39.589
1578.35, -39.5956
1578.29, -39.6021
1578.22, -39.6087
1578.16, -39.6152
1578.1, -39.6218
1578.04, -39.6283
1577.98, -39.6349
1577.91, -39.6415
1577.85, -39.6481
1577.79, -39.6546
1577.73, -39.6612
1577.67, -39.6678
1577.6, -39.6744
1577.54, -39.681
1577.48, -39.6876
1577.42, -39.6943
1577.35, -39.7009
1577.29, -39.7075
1577.23, -39.7141
1577.17, -39.7208
1577.11, -39.7274
1577.04, -39.7341
1576.98, -39.7407
1576.92, -39.7474
1576.86, -39.754
1576.8, -39.7607
1576.73, -39.7674
1576.67, -39.774
1576.61, -39.7807
1576.55, -39.7874
1576.48, -39.7941
1576.42, -39.8008
1576.36, -39.8075
1576.3, -39.8142
1576.24, -39.8209
1576.17, -39.8276
1576.11, -39.8344
1576.05, -39.8411
1575.99, -39.8478
1575.93, -39.8546
1575.86, -39.8613
1575.8, -39.868
1575.74, -39.8748
1575.68, -39.8816
1575.62, -39.8883
1575.55, -39.8951
1575.49, -39.9019
1575.43, -39.9086
1575.37, -39.9154
1575.31, -39.9222
1575.24, -39.929
1575.18, -39.9358
1575.12, -39.9426
1575.06, -39.9494
1575, -39.9563
1574.93, -39.9631
1574.87, -39.9699
1574.81, -39.9767
1574.75, -39.9836
1574.69, -39.9904
1574.63, -39.9973
1574.56, -40.0041
1574.5, -40.011
1574.44, -40.0179
1574.38, -40.0247
1574.32, -40.0316
1574.25, -40.0385
1574.19, -40.0454
1574.13, -40.0523
1574.07, -40.0592
1574.01, -40.0661
1573.94, -40.073
1573.88, -40.0799
1573.82, -40.0868
1573.76, -40.0936
1573.7, -40.0998
1573.63, -40.106
1573.57, -40.1121
1573.51, -40.1183
1573.45, -40.1245
1573.39, -40.1307
1573.33, -40.1369
1573.26, -40.1431
1573.2, -40.1493
1573.14, -40.1555
1573.08, -40.1617
1573.02, -40.1679
1572.95, -40.1742
1572.89, -40.1804
1572.83, -40.1866
1572.77, -40.1929
1572.71, -40.1991
1572.65, -40.2053
1572.58, -40.2116
1572.52, -40.2179
1572.46, -40.2241
1572.4, -40.2304
1572.34, -40.2366
1572.28, -40.2429
1572.21, -40.2492
1572.15, -40.2555
1572.09, -40.2618
1572.03, -40.2681
1571.97, -40.2744
1571.91, -40.2807
1571.84, -40.287
1571.78, -40.2933
1571.72, -40.2996
1571.66, -40.3059
1571.6, -40.3122
1571.54, -40.3185
1571.47, -40.3249
1571.41, -40.3312
1571.35, -40.3376
1571.29, -40.3439
1571.23, -40.3503
1571.17, -40.3566
1571.1, -40.363
1571.04, -40.3693
1570.98, -40.3757
1570.92, -40.3821
1570.86, -40.3885
1570.8, -40.3948
1570.73, -40.4012
1570.67, -40.4076
1570.61, -40.414
1570.55, -40.4204
1570.49, -40.4268
1570.43, -40.4332
1570.36, -40.4397
1570.3, -40.4461
1570.24, -40.4525
1570.18, -40.4589
1570.12, -40.4654
1570.06, -40.4718
1569.99, -40.4783
1569.93, -40.4847
1569.87, -40.4912
1569.81, -40.4976
1569.75, -40.5041
1569.69, -40.5106
1569.63, -40.517
1569.56, -40.5235
1569.5, -40.53
1569.44, -40.5365
1569.38, -40.543
1569.32, -40.5495
1569.26, -40.556
1569.19, -40.5625
1569.13, -40.569
1569.07, -40.5755
1569.01, -40.582
1568.95, -40.5886
1568.89, -40.5951
1568.83, -40.6016
1568.76, -40.6082
1568.7, -40.6147
1568.64, -40.6213
1568.58, -40.6268
1568.52, -40.6321
1568.46, -40.6374
1568.4, -40.6427
1568.33, -40.648
1568.27, -40.6533
1568.21, -40.6585
1568.15, -40.6638
1568.09, -40.6691
1568.03, -40.6744
1567.97, -40.6797
1567.9, -40.6851
1567.84, -40.6904
1567.78, -40.6957
1567.72, -40.701
1567.66, -40.7063
1567.6, -40.7116
1567.54, -40.717
1567.47, -40.7223
1567.41, -40.7276
1567.35, -40.733
1567.29, -40.7383
1567.23, -40.7437
1567.17, -40.749
1567.11, -40.7544
1567.05, -40.7597
1566.98, -40.7651
1566.92, -40.7704
1566.86, -40.7758
1566.8, -40.7812
1566.74, -40.7865
1566.68, -40.7919
1566.62, -40.7973
1566.55, -40.8027
1566.49, -40.8081
1566.43, -40.8134
1566.37, -40.8188
1566.31, -40.8242
1566.25, -40.8296
1566.19, -40.835
1566.13, -40.8404
1566.06, -40.8458
1566, -40.8513
1565.94, -40.8567
1565.88, -40.8621
1565.82, -40.8675
1565.76, -40.8729
1565.7, -40.8784
1565.64, -40.8838
1565.57, -40.8892
1565.51, -40.8947
1565.45, -40.9001
1565.39, -40.9056
1565.33, -40.911
1565.27, -40.9165
1565.21, -40.9219
1565.15, -40.9274
1565.09, -40.9328
1565.02, -40.9383
1564.96, -40.9438
1564.9, -40.9492
1564.84, -40.9547
1564.78, -40.9602
1564.72, -40.9657
1564.66, -40.9712
1564.6, -40.9766
1564.54, -40.9821
1564.47, -40.9876
1564.41, -40.9931
1564.35, -40.9986
1564.29, -41.0042
1564.23, -41.0097
1564.17, -41.0152
1564.11, -41.0207
1564.05, -41.0262
1563.99, -41.0317
1563.92, -41.0373
1563.86, -41.0428
1563.8, -41.0483
1563.74, -41.0539
1563.68, -41.0594
1563.62, -41.065
1563.56, -41.0705
1563.5, -41.0747
1563.44, -41.0764
1563.37, -41.0782
1563.31, -41.0799
1563.25, -41.0816
1563.19, -41.0834
1563.13, -41.0851
1563.07, -41.0868
1563.01, -41.0885
1562.95, -41.0903
1562.89, -41.092
1562.83, -41.0937
1562.76, -41.0955
1562.7, -41.0972
1562.64, -41.0989
1562.58, -41.1006
1562.52, -41.1024
1562.46, -41.1041
1562.4, -41.1058
1562.34, -41.1076
1562.28, -41.1093
1562.22, -41.111
1562.15, -41.1128
1562.09, -41.1145
1562.03, -41.1162
1561.97, -41.118
1561.91, -41.1197
1561.85, -41.1214
1561.79, -41.1232
1561.73, -41.1249
1561.67, -41.1266
1561.61, -41.1284
1561.55, -41.1301
1561.48, -41.1319
1561.42, -41.1336
1561.36, -41.1353
1561.3, -41.1371
1561.24, -41.1388
1561.18, -41.1405
1561.12, -41.1423
1561.06, -41.144
1561, -41.1458
1560.94, -41.1475
1560.88, -41.1492
1560.81, -41.151
1560.75, -41.1527
1560.69, -41.1545
1560.63, -41.1562
1560.57, -41.1579
1560.51, -41.1597
1560.45, -41.1614
1560.39, -41.1632
1560.33, -41.1649
1560.27, -41.1667
1560.21, -41.1684
1560.15, -41.1701
1560.09, -41.1719
1560.02, -41.1736
1559.96, -41.1754
1559.9, -41.1771
1559.84, -41.1789
1559.78, -41.1806
1559.72, -41.1824
1559.66, -41.1841
1559.6, -41.1859
1559.54, -41.1876
1559.48, -41.1894
1559.42, -41.1911
1559.36, -41.1929
1559.3, -41.1946
1559.23, -41.1964
1559.17, -41.1981
1559.11, -41.1999
1559.05, -41.2016
1558.99, -41.2034
1558.93, -41.2051
1558.87, -41.2069
1558.81, -41.2086
1558.75, -41.2104
1558.69, -41.2121
1558.63, -41.2139
1558.57, -41.2156
1558.51, -41.2174
1558.45, -41.2191
1558.39, -41.2139
1558.32, -41.2081
1558.26, -41.2023
1558.2, -41.1965
1558.14, -41.1907
1558.08, -41.1849
1558.02, -41.1791
1557.96, -41.1734
1557.9, -41.1676
1557.84, -41.1618
1557.78, -41.1561
1557.72, -41.1503
1557.66, -41.1446
1557.6, -41.1388
1557.54, -41.1331
1557.48, -41.1273
1557.42, -41.1216
1557.35, -41.1158
1557.29, -41.1101
1557.23, -41.1044
1557.17, -41.0987
1557.11, -41.0929
1557.05, -41.0872
1556.99, -41.0815
1556.93, -41.0758
1556.87, -41.0701
1556.81, -41.0644
1556.75, -41.0587
1556.69, -41.053
1556.63, -41.0473
1556.57, -41.0416
1556.51, -41.0359
1556.45, -41.0303
1556.39, -41.0246
1556.33, -41.0189
1556.27, -41.0133
1556.2, -41.0076
1556.14, -41.0019
1556.08, -40.9963
1556.02, -40.9906
1555.96, -40.985
1555.9, -40.9793
1555.84, -40.9737
1555.78, -40.968
1555.72, -40.9624
1555.66, -40.9568
1555.6, -40.9511
1555.54, -40.9455
1555.48, -40.9399
1555.42, -40.9343
1555.36, -40.9287
1555.3, -40.9231
1555.24, -40.9175
1555.18, -40.9119
1555.12, -40.9063
1555.06, -40.9007
1555, -40.8951
1554.94, -40.8895
1554.88, -40.8839
1554.81, -40.8783
1554.75, -40.8727
1554.69, -40.8672
1554.63, -40.8616
1554.57, -40.856
1554.51, -40.8505
1554.45, -40.8449
1554.39, -40.8394
1554.33, -40.8338
1554.27, -40.8283
1554.21, -40.8227
1554.15, -40.8172
1554.09, -40.8116
1554.03, -40.8061
1553.97, -40.8006
1553.91, -40.795
1553.85, -40.7895
1553.79, -40.784
1553.73, -40.7785
1553.67, -40.773
1553.61, -40.7675
1553.55, -40.762
1553.49, -40.7565
1553.43, -40.751
1553.37, -40.7407
1553.31, -40.726
1553.25, -40.7113
1553.19, -40.6966
1553.13, -40.682
1553.07, -40.6673
1553.01, -40.6527
1552.95, -40.6381
1552.89, -40.6236
1552.83, -40.6091
1552.76, -40.5945
1552.7, -40.5801
1552.64, -40.5656
1552.58, -40.5512
1552.52, -40.5368
1552.46, -40.5224
1552.4, -40.508
1552.34, -40.4937
1552.28, -40.4793
1552.22, -40.465
1552.16, -40.4508
1552.1, -40.4365
1552.04, -40.4223
1551.98, -40.4081
1551.92, -40.3939
1551.86, -40.3798
1551.8, -40.3656
1551.74, -40.3515
1551.68, -40.3375
1551.62, -40.3234
1551.56, -40.3094
1551.5, -40.2953
1551.44, -40.2813
1551.38, -40.2674
1551.32, -40.2534
1551.26, -40.2395
1551.2, -40.2256
1551.14, -40.2117
1551.08, -40.1978
1551.02, -40.184
1550.96, -40.1702
1550.9, -40.1564
1550.84, -40.1426
1550.78, -40.1289
1550.72, -40.1151
1550.66, -40.1014
1550.6, -40.0878
1550.54, -40.0741
1550.48, -40.0604
1550.42, -40.0468
1550.36, -40.0332
1550.3, -40.0196
1550.24, -40.0061
1550.18, -39.9926
1550.12, -39.979
1550.06, -39.9655
1550, -39.9521
1549.94, -39.9386
1549.88, -39.9252
1549.82, -39.9118
1549.76, -39.8984
1549.7, -39.885
1549.64, -39.8717
1549.58, -39.8583
1549.52, -39.845
1549.46, -39.8317
1549.4, -39.8185
1549.34, -39.8052
1549.28, -39.792
1549.22, -39.7788
1549.16, -39.7656
1549.1, -39.7524
1549.04, -39.7393
1548.98, -39.7262
1548.92, -39.7131
1548.86, -39.7
1548.8, -39.6869
1548.74, -39.6739
1548.68, -39.6608
1548.62, -39.6478
1548.56, -39.6348
1548.5, -39.6173
1548.44, -39.5976
1548.38, -39.5779
1548.32, -39.5578
1548.26, -39.5377
1548.2, -39.5173
1548.14, -39.4963
1548.08, -39.4755
1548.02, -39.4546
1547.96, -39.4339
1547.9, -39.4131
1547.84, -39.3925
1547.78, -39.3718
1547.72, -39.3512
1547.66, -39.3307
1547.6, -39.3102
1547.54, -39.2898
1547.48, -39.2694
1547.42, -39.2491
1547.36, -39.2288
1547.3, -39.2086
1547.24, -39.1884
1547.19, -39.1682
1547.13, -39.1481
1547.07, -39.1281
1547.01, -39.108
1546.95, -39.0881
1546.89, -39.0682
1546.83, -39.0483
1546.77, -39.0285
1546.71, -39.0087
1546.65, -38.989
1546.59, -38.9693
1546.53, -38.9496
1546.47, -38.93
1546.41, -38.9105
1546.35, -38.8909
1546.29, -38.8715
1546.23, -38.852
1546.17, -38.8327
1546.11, -38.8133
1546.05, -38.794
1545.99, -38.7748
1545.93, -38.7556
1545.87, -38.7364
1545.81, -38.7173
1545.75, -38.6982
1545.69, -38.6791
1545.63, -38.6601
1545.57, -38.6412
1545.51, -38.6222
1545.45, -38.6034
1545.39, -38.5845
1545.33, -38.5657
1545.27, -38.547
1545.21, -38.5283
1545.16, -38.5096
1545.1, -38.491
1545.04, -38.4724
1544.98, -38.4538
1544.92, -38.4353
1544.86, -38.4168
1544.8, -38.3984
1544.74, -38.38
1544.68, -38.3616
1544.62, -38.3433
1544.56, -38.325
1544.5, -38.3068
1544.44, -38.2886
1544.38, -38.2704
1544.32, -38.2523
1544.26, -38.2342
1544.2, -38.2161
1544.14, -38.1981
1544.08, -38.1801
1544.02, -38.1622
1543.96, -38.1443
1543.9, -38.1264
1543.84, -38.1086
1543.79, -38.0908
1543.73, -38.073
1543.67, -38.0553
1543.61, -38.0376
1543.55, -38.02
1543.49, -38.0023
1543.43, -37.9848
1543.37, -37.9644
1543.31, -37.9426
1543.25, -37.9209
1543.19, -37.8993
1543.13, -37.8777
1543.07, -37.8562
1543.01, -37.8347
1542.95, -37.8133
1542.89, -37.7919
1542.83, -37.7706
1542.77, -37.7493
1542.71, -37.7281
1542.65, -37.707
1542.6, -37.6859
1542.54, -37.6648
1542.48, -37.6438
1542.42, -37.6228
1542.36, -37.6019
1542.3, -37.5811
1542.24, -37.5603
1542.18, -37.5395
1542.12, -37.5188
1542.06, -37.4981
1542, -37.4775
1541.94, -37.457
1541.88, -37.4365
1541.82, -37.416
1541.76, -37.3956
1541.7, -37.3752
1541.65, -37.3549
1541.59, -37.3346
1541.53, -37.3144
1541.47, -37.2942
1541.41, -37.2741
1541.35, -37.254
1541.29, -37.234
1541.23, -37.214
1541.17, -37.194
1541.11, -37.1741
1541.05, -37.1543
1540.99, -37.1345
1540.93, -37.1147
1540.87, -37.095
1540.81, -37.0753
1540.76, -37.0557
1540.7, -37.0361
1540.64, -37.0165
1540.58, -36.997
1540.52, -36.9776
1540.46, -36.9582
1540.4, -36.9388
1540.34, -36.9195
1540.28, -36.9002
1540.22, -36.881
1540.16, -36.8618
1540.1, -36.8426
1540.04, -36.8235
1539.99, -36.8044
1539.93, -36.7854
1539.87, -36.7664
1539.81, -36.7475
1539.75, -36.7286
1539.69, -36.7097
1539.63, -36.6909
1539.57, -36.6721
1539.51, -36.6534
1539.45, -36.6347
1539.39, -36.616
1539.33, -36.5974
1539.27, -36.5788
1539.22, -36.5603
1539.16, -36.5417
1539.1, -36.5233
1539.04, -36.5049
1538.98, -36.4865
1538.92, -36.4681
1538.86, -36.4498
1538.8, -36.4316
1538.74, -36.4133
1538.68, -36.3951
1538.62, -36.377
1538.56, -36.3589
1538.51, -36.3408
1538.45, -36.3224
1538.39, -36.3028
1538.33, -36.2833
1538.27, -36.2639
1538.21, -36.2445
1538.15, -36.2251
1538.09, -36.2058
1538.03, -36.1865
1537.97, -36.1673
1537.91, -36.1481
1537.86, -36.1289
1537.8, -36.1098
1537.74, -36.0907
1537.68, -36.0717
1537.62, -36.0527
1537.56, -36.0338
1537.5, -36.0149
1537.44, -35.996
1537.38, -35.9772
1537.32, -35.9584
1537.27, -35.9397
1537.21, -35.921
1537.15, -35.9023
1537.09, -35.8837
1537.03, -35.8651
1536.97, -35.8466
1536.91, -35.8281
1536.85, -35.8096
1536.79, -35.7912
1536.73, -35.7728
1536.68, -35.7545
1536.62, -35.7362
1536.56, -35.7179
1536.5, -35.6997
1536.44, -35.6815
1536.38, -35.6633
1536.32, -35.6452
1536.26, -35.6272
1536.2, -35.6091
1536.14, -35.5911
1536.09, -35.5732
1536.03, -35.5552
1535.97, -35.5373
1535.91, -35.5195
1535.85, -35.5017
1535.79, -35.4839
1535.73, -35.4661
1535.67, -35.4484
1535.61, -35.4308
1535.56, -35.4131
1535.5, -35.3955
1535.44, -35.378
1535.38, -35.3604
1535.32, -35.3429
1535.26, -35.3255
1535.2, -35.3081
1535.14, -35.2907
1535.08, -35.2733
1535.03, -35.256
1534.97, -35.2387
1534.91, -35.2215
1534.85, -35.2043
1534.79, -35.1871
1534.73, -35.1699
1534.67, -35.1528
1534.61, -35.1357
1534.56, -35.1187
1534.5, -35.1017
1534.44, -35.0847
1534.38, -35.0677
1534.32, -35.0508
1534.26, -35.0339
1534.2, -35.0171
1534.14, -35.0003
1534.09, -34.9835
1534.03, -34.9667
1533.97, -34.95
1533.91, -34.9333
1533.85, -34.9167
1533.79, -34.9001
1533.73, -34.8835
1533.67, -34.8669
1533.62, -34.8504
1533.56, -34.8339
1533.5, -34.8164
1533.44, -34.7987
1533.38, -34.7811
1533.32, -34.7635
1533.26, -34.746
1533.2, -34.7284
1533.15, -34.711
1533.09, -34.6935
1533.03, -34.6761
1532.97, -34.6587
1532.91, -34.6414
1532.85, -34.6241
1532.79, -34.6068
1532.73, -34.5896
1532.68, -34.5723
1532.62, -34.5552
1532.56, -34.538
1532.5, -34.5209
1532.44, -34.5039
1532.38, -34.4868
1532.32, -34.4698
1532.27, -34.4528
1532.21, -34.4359
1532.15, -34.419
1532.09, -34.4021
1532.03, -34.3853
1531.97, -34.3685
1531.91, -34.3517
1531.85, -34.335
1531.8, -34.3183
1531.74, -34.3016
1531.68, -34.2849
1531.62, -34.2683
1531.56, -34.2517
1531.5, -34.2352
1531.44, -34.2187
1531.39, -34.2022
1531.33, -34.1857
1531.27, -34.1693
1531.21, -34.1529
1531.15, -34.1365
1531.09, -34.1202
1531.03, -34.1039
1530.98, -34.0876
1530.92, -34.0714
1530.86, -34.0552
1530.8, -34.039
1530.74, -34.0228
1530.68, -34.0067
1530.63, -33.9906
1530.57, -33.9746
1530.51, -33.9585
1530.45, -33.9425
1530.39, -33.9266
1530.33, -33.9106
1530.27, -33.8947
1530.22, -33.8788
1530.16, -33.863
1530.1, -33.8471
1530.04, -33.8313
1529.98, -33.8156
1529.92, -33.7998
1529.87, -33.7841
1529.81, -33.7684
1529.75, -33.7528
1529.69, -33.7371
1529.63, -33.7215
1529.57, -33.706
1529.51, -33.6904
1529.46, -33.6749
1529.4, -33.6594
1529.34, -33.644
1529.28, -33.6285
1529.22, -33.6131
1529.16, -33.5978
1529.11, -33.5824
1529.05, -33.5671
1528.99, -33.5518
1528.93, -33.5365
1528.87, -33.5213
1528.81, -33.506
1528.76, -33.4909
1528.7, -33.4757
1528.64, -33.46
1528.58, -33.4436
1528.52, -33.4271
1528.46, -33.4107
1528.41, -33.3944
1528.35, -33.3781
1528.29, -33.3618
1528.23, -33.3455
1528.17, -33.3293
1528.11, -33.313
1528.06, -33.2969
1528, -33.2807
1527.94, -33.2646
1527.88, -33.2485
1527.82, -33.2325
1527.76, -33.2164
1527.71, -33.2004
1527.65, -33.1845
1527.59, -33.1685
1527.53, -33.1526
1527.47, -33.1368
1527.41, -33.1209
1527.36, -33.1051
1527.3, -33.0893
1527.24, -33.0735
1527.18, -33.0578
1527.12, -33.0421
1527.06, -33.0264
1527.01, -33.0107
1526.95, -32.9951
1526.89, -32.9795
1526.83, -32.964
1526.77, -32.9484
1526.72, -32.9329
1526.66, -32.9174
1526.6, -32.902
1526.54, -32.8865
1526.48, -32.8711
1526.42, -32.8558
1526.37, -32.8404
1526.31, -32.8251
1526.25, -32.8098
1526.19, -32.7945
1526.13, -32.7793
1526.08, -32.7641
1526.02, -32.7489
1525.96, -32.7337
1525.9, -32.7186
1525.84, -32.7035
1525.78, -32.6884
1525.73, -32.6734
1525.67, -32.6583
1525.61, -32.6433
1525.55, -32.6284
1525.49, -32.6134
1525.44, -32.5985
1525.38, -32.5836
1525.32, -32.5687
1525.26, -32.5539
1525.2, -32.539
1525.15, -32.5242
1525.09, -32.5095
1525.03, -32.4947
1524.97, -32.48
1524.91, -32.4653
1524.85, -32.4506
1524.8, -32.436
1524.74, -32.4214
1524.68, -32.4068
1524.62, -32.3922
1524.56, -32.3776
1524.51, -32.3631
1524.45, -32.3486
1524.39, -32.3341
1524.33, -32.3197
1524.27, -32.3052
1524.22, -32.2908
1524.16, -32.2765
1524.1, -32.2621
1524.04, -32.2478
1523.98, -32.2335
1523.93, -32.2192
1523.87, -32.2049
1523.81, -32.1907
1523.75, -32.1766
1523.69, -32.1625
1523.64, -32.1485
1523.58, -32.1345
1523.52, -32.1205
1523.46, -32.1065
1523.4, -32.0926
1523.35, -32.0786
1523.29, -32.0647
1523.23, -32.0508
1523.17, -32.037
1523.11, -32.0231
1523.06, -32.0093
1523, -31.9955
1522.94, -31.9818
1522.88, -31.968
1522.82, -31.9543
1522.77, -31.9406
1522.71, -31.9269
1522.65, -31.9132
1522.59, -31.8996
1522.54, -31.886
1522.48, -31.8724
1522.42, -31.8588
1522.36, -31.8452
1522.3, -31.8317
1522.25, -31.8182
1522.19, -31.8047
1522.13, -31.7912
1522.07, -31.7777
1522.01, -31.7643
1521.96, -31.7509
1521.9, -31.7375
1521.84, -31.7241
1521.78, -31.7108
1521.73, -31.6975
1521.67, -31.6842
1521.61, -31.6709
1521.55, -31.6576
1521.49, -31.6444
1521.44, -31.6311
1521.38, -31.6179
1521.32, -31.6047
1521.26, -31.5916
1521.21, -31.5784
1521.15, -31.5653
1521.09, -31.5522
1521.03, -31.5391
1520.97, -31.526
1520.92, -31.513
1520.86, -31.5
1520.8, -31.4869
1520.74, -31.474
1520.69, -31.461
1520.63, -31.448
1580.59, -3.49817
1580.53, -3.49707
1580.47, -3.49597
1580.4, -3.49487
1580.34, -3.49377
1580.28, -3.49267
1580.22, -3.49157
1580.16, -3.49047
1580.09, -3.48938
1580.03, -3.48828
1579.97, -3.48718
1579.91, -3.48608
1579.84, -3.48498
1579.78, -3.48388
1579.72, -3.48279
1579.66, -3.48169
1579.59, -3.48059
1579.53, -3.47949
1579.47, -3.4784
1579.41, -3.4773
1579.35, -3.4762
1579.28, -3.4751
1579.22, -3.47401
1579.16, -3.47291
1579.1, -3.47181
1579.03, -3.47072
1578.97, -3.46962
1578.91, -3.46879
1578.85, -3.46813
1578.78, -3.46747
1578.72, -3.46682
1578.66, -3.46616
1578.6, -3.4655
1578.54, -3.46484
1578.47, -3.46418
1578.41, -3.46352
1578.35, -3.46286
1578.29, -3.4622
1578.22, -3.46154
1578.16, -3.46089
1578.1, -3.46023
1578.04, -3.45957
1577.98, -3.45891
1577.91, -3.45825
1577.85, -3.45759
1577.79, -3.45694
1577.73, -3.45628
1577.67, -3.45562
1577.6, -3.45496
1577.54, -3.4543
1577.48, -3.45365
1577.42, -3.45299
1577.35, -3.45233
1577.29, -3.45167
1577.23, -3.45101
1577.17, -3.45036
1577.11, -3.4497
1577.04, -3.44904
1576.98, -3.44838
1576.92, -3.44773
1576.86, -3.44707
1576.8, -3.44641
1576.73, -3.44575
1576.67, -3.4451
1576.61, -3.44444
1576.55, -3.44378
1576.48, -3.44312
1576.42, -3.44247
1576.36, -3.44181
1576.3, -3.44115
1576.24, -3.4405
1576.17, -3.43984
1576.11, -3.43918
1576.05, -3.43852
1575.99, -3.43787
1575.93, -3.43721
1575.86, -3.43655
1575.8, -3.4359
1575.74, -3.43524
1575.68, -3.43458
1575.62, -3.43393
1575.55, -3.43327
1575.49, -3.43261
1575.43, -3.43196
1575.37, -3.4313
1575.31, -3.43065
1575.24, -3.42999
1575.18, -3.42933
1575.12, -3.42868
1575.06, -3.42802
1575, -3.42736
1574.93, -3.42671
1574.87, -3.42605
1574.81, -3.4254
1574.75, -3.42474
1574.69, -3.42409
1574.63, -3.42343
1574.56, -3.42277
1574.5, -3.42212
1574.44, -3.42146
1574.38, -3.42081
1574.32, -3.42015
1574.25, -3.4195
1574.19, -3.41884
1574.13, -3.41819
1574.07, -3.41753
1574.01, -3.41688
1573.94, -3.41622
1573.88, -3.41556
1573.82, -3.41491
1573.76, -3.41422
1573.7, -3.41339
1573.63, -3.41256
1573.57, -3.41172
1573.51, -3.41089
1573.45, -3.41006
1573.39, -3.40923
1573.33, -3.4084
1573.26, -3.40756
1573.2, -3.40673
1573.14, -3.4059
1573.08, -3.40507
1573.02, -3.40424
1572.95, -3.40341
1572.89, -3.40257
1572.83, -3.40174
1572.77, -3.40091
1572.71, -3.40008
1572.65, -3.39925
1572.58, -3.39842
1572.52, -3.39759
1572.46, -3.39676
1572.4, -3.39593
1572.34, -3.39509
1572.28, -3.39426
1572.21, -3.39343
1572.15, -3.3926
1572.09, -3.39177
1572.03, -3.39094
1571.97, -3.39011
1571.91, -3.38928
1571.84, -3.38845
1571.78, -3.38762
1571.72, -3.38679
1571.66, -3.38596
1571.6, -3.38513
1571.54, -3.3843
1571.47, -3.38347
1571.41, -3.38264
1571.35, -3.38181
1571.29, -3.38098
1571.23, -3.38016
1571.17, -3.37933
1571.1, -3.3785
1571.04, -3.37767
1570.98, -3.37684
1570.92, -3.37601
1570.86, -3.37518
1570.8, -3.37435
1570.73, -3.37352
1570.67, -3.3727
1570.61, -3.37187
1570.55, -3.37104
1570.49, -3.37021
1570.43, -3.36938
1570.36, -3.36855
1570.3, -3.36773
1570.24, -3.3669
1570.18, -3.36607
1570.12, -3.36524
1570.06, -3.36441
1569.99, -3.36359
1569.93, -3.36276
1569.87, -3.36193
1569.81, -3.3611
1569.75, -3.36028
1569.69, -3.35945
1569.63, -3.35862
1569.56, -3.3578
1569.5, -3.35697
1569.44, -3.35614
1569.38, -3.35531
1569.32, -3.35449
1569.26, -3.35366
1569.19, -3.35283
1569.13, -3.35201
1569.07, -3.35118
1569.01, -3.35035
1568.95, -3.34953
1568.89, -3.3487
1568.83, -3.34788
1568.76, -3.34705
1568.7, -3.34622
1568.64, -3.3454
1568.58, -3.34435
1568.52, -3.34323
1568.46, -3.34212
1568.4, -3.341
1568.33, -3.33988
1568.27, -3.33877
1568.21, -3.33765
1568.15, -3.33654
1568.09, -3.33542
1568.03, -3.33431
1567.97, -3.33319
1567.9, -3.33208
1567.84, -3.33096
1567.78, -3.32985
1567.72, -3.32874
1567.66, -3.32762
1567.6, -3.32651
1567.54, -3.32539
1567.47, -3.32428
1567.41, -3.32317
1567.35, -3.32205
1567.29, -3.32094
1567.23, -3.31983
1567.17, -3.31871
1567.11, -3.3176
1567.05, -3.31649
1566.98, -3.31538
1566.92, -3.31426
1566.86, -3.31315
1566.8, -3.31204
1566.74, -3.31093
1566.68, -3.30982
1566.62, -3.3087
1566.55, -3.30759
1566.49, -3.30648
1566.43, -3.30537
1566.37, -3.30426
1566.31, -3.30315
1566.25, -3.30204
1566.19, -3.30093
1566.13, -3.29982
1566.06, -3.29871
1566, -3.2976
1565.94, -3.29649
1565.88, -3.29538
1565.82, -3.29427
1565.76, -3.29316
1565.7, -3.29205
1565.64, -3.29094
1565.57, -3.28983
1565.51, -3.28872
1565.45, -3.28761
1565.39, -3.2865
1565.33, -3.28539
1565.27, -3.28428
1565.21, -3.28318
1565.15, -3.28207
1565.09, -3.28096
1565.02, -3.27985
1564.96, -3.27874
1564.9, -3.27764
1564.84, -3.27653
1564.78, -3.27542
1564.72, -3.27431
1564.66, -3.27321
1564.6, -3.2721
1564.54, -3.27099
1564.47, -3.26989
1564.41, -3.26878
1564.35, -3.26767
1564.29, -3.26657
1564.23, -3.26546
1564.17, -3.26436
1564.11, -3.26325
1564.05, -3.26214
1563.99, -3.26104
1563.92, -3.25993
1563.86, -3.25883
1563.8, -3.25772
1563.74, -3.25662
1563.68, -3.25551
1563.62, -3.25441
1563.56, -3.2533
1563.5, -3.25237
1563.44, -3.25174
1563.37, -3.25111
1563.31, -3.25048
1563.25, -3.24985
1563.19, -3.24922
1563.13, -3.24859
1563.07, -3.24796
1563.01, -3.24733
1562.95, -3.2467
1562.89, -3.24607
1562.83, -3.24544
1562.76, -3.24481
1562.7, -3.24418
1562.64, -3.24355
1562.58, -3.24292
1562.52, -3.24229
1562.46, -3.24166
1562.4, -3.24103
1562.34, -3.2404
1562.28, -3.23977
1562.22, -3.23915
1562.15, -3.23852
1562.09, -3.23789
1562.03, -3.23726
1561.97, -3.23663
1561.91, -3.236
1561.85, -3.23537
1561.79, -3.23474
1561.73, -3.23411
1561.67, -3.23349
1561.61, -3.23286
1561.55, -3.23223
1561.48, -3.2316
1561.42, -3.23097
1561.36, -3.23034
1561.3, -3.22972
1561.24, -3.22909
1561.18, -3.22846
1561.12, -3.22783
1561.06, -3.2272
1561, -3.22657
1560.94, -3.22595
1560.88, -3.22532
1560.81, -3.22469
1560.75, -3.22406
1560.69, -3.22343
1560.63, -3.22281
1560.57, -3.22218
1560.51, -3.22155
1560.45, -3.22092
1560.39, -3.2203
1560.33, -3.21967
1560.27, -3.21904
1560.21, -3.21841
1560.15, -3.21779
1560.09, -3.21716
1560.02, -3.21653
1559.96, -3.2159
1559.9, -3.21528
1559.84, -3.21465
1559.78, -3.21402
1559.72, -3.21339
1559.66, -3.21277
1559.6, -3.21214
1559.54, -3.21151
1559.48, -3.21089
1559.42, -3.21026
1559.36, -3.20963
1559.3, -3.209
1559.23, -3.20838
1559.17, -3.20775
1559.11, -3.20712
1559.05, -3.2065
1558.99, -3.20587
1558.93, -3.20524
1558.87, -3.20462
1558.81, -3.20399
1558.75, -3.20336
1558.69, -3.20274
1558.63, -3.20211
1558.57, -3.20149
1558.51, -3.20086
1558.45, -3.20023
1558.39, -3.20023
1558.32, -3.20028
1558.26, -3.20032
1558.2, -3.20037
1558.14, -3.20041
1558.08, -3.20046
1558.02, -3.2005
1557.96, -3.20055
1557.9, -3.20059
1557.84, -3.20063
1557.78, -3.20068
1557.72, -3.20072
1557.66, -3.20077
1557.6, -3.20081
1557.54, -3.20086
1557.48, -3.2009
1557.42, -3.20095
1557.35, -3.20099
1557.29, -3.20104
1557.23, -3.20108
1557.17, -3.20113
1557.11, -3.20117
1557.05, -3.20122
1556.99, -3.20126
1556.93, -3.20131
1556.87, -3.20135
1556.81, -3.2014
1556.75, -3.20144
1556.69, -3.20149
1556.63, -3.20153
1556.57, -3.20158
1556.51, -3.20162
1556.45, -3.20167
1556.39, -3.20171
1556.33, -3.20175
1556.27, -3.2018
1556.2, -3.20184
1556.14, -3.20189
1556.08, -3.20193
1556.02, -3.20198
1555.96, -3.20202
1555.9, -3.20207
1555.84, -3.20211
1555.78, -3.20216
1555.72, -3.2022
1555.66, -3.20225
1555.6, -3.20229
1555.54, -3.20234
1555.48, -3.20238
1555.42, -3.20243
1555.36, -3.20247
1555.3, -3.20252
1555.24, -3.20256
1555.18, -3.20261
1555.12, -3.20265
1555.06, -3.2027
1555, -3.20274
1554.94, -3.20279
1554.88, -3.20283
1554.81, -3.20287
1554.75, -3.20292
1554.69, -3.20296
1554.63, -3.20301
1554.57, -3.20305
1554.51, -3.2031
1554.45, -3.20314
1554.39, -3.20319
1554.33, -3.20323
1554.27, -3.20328
1554.21, -3.20332
1554.15, -3.20337
1554.09, -3.20341
1554.03, -3.20346
1553.97, -3.2035
1553.91, -3.20355
1553.85, -3.20359
1553.79, -3.20364
1553.73, -3.20368
1553.67, -3.20373
1553.61, -3.20377
1553.55, -3.20382
1553.49, -3.20386
1553.43, -3.20391
1553.37, -3.20392
1553.31, -3.20391
1553.25, -3.2039
1553.19, -3.20388
1553.13, -3.20387
1553.07, -3.20386
1553.01, -3.20385
1552.95, -3.20383
1552.89, -3.20382
1552.83, -3.20381
1552.76, -3.2038
1552.7, -3.20378
1552.64, -3.20377
1552.58, -3.20376
1552.52, -3.20375
1552.46, -3.20373
1552.4, -3.20372
1552.34, -3.20371
1552.28, -3.2037
1552.22, -3.20368
1552.16, -3.20367
1552.1, -3.20366
1552.04, -3.20365
1551.98, -3.20363
1551.92, -3.20362
1551.86, -3.20361
1551.8, -3.2036
1551.74, -3.20358
1551.68, -3.20357
1551.62, -3.20356
1551.56, -3.20355
1551.5, -3.20353
1551.44, -3.20352
1551.38, -3.20351
1551.32, -3.2035
1551.26, -3.20348
1551.2, -3.20347
1551.14, -3.20346
1551.08, -3.20345
1551.02, -3.20343
1550.96, -3.20342
1550.9, -3.20341
1550.84, -3.2034
1550.78, -3.20338
1550.72, -3.20337
1550.66, -3.20336
1550.6, -3.20335
1550.54, -3.20333
1550.48, -3.20332
1550.42, -3.20331
1550.36, -3.2033
1550.3, -3.20328
1550.24, -3.20327
1550.18, -3.20326
1550.12, -3.20325
1550.06, -3.20323
1550, -3.20322
1549.94, -3.20321
1549.88, -3.2032
1549.82, -3.20318
1549.76, -3.20317
1549.7, -3.20316
1549.64, -3.20315
1549.58, -3.20313
1549.52, -3.20312
1549.46, -3.20311
1549.4, -3.2031
1549.34, -3.20308
1549.28, -3.20307
1549.22, -3.20306
1549.16, -3.20305
1549.1, -3.20303
1549.04, -3.20302
1548.98, -3.20301
1548.92, -3.203
1548.86, -3.20298
1548.8, -3.20297
1548.74, -3.20296
1548.68, -3.20295
1548.62, -3.20293
1548.56, -3.20292
1548.5, -3.20195
1548.44, -3.20053
1548.38, -3.19906
1548.32, -3.1972
1548.26, -3.19534
1548.2, -3.19427
1548.14, -3.19398
1548.08, -3.1937
1548.02, -3.19341
1547.96, -3.19313
1547.9, -3.19284
1547.84, -3.19255
1547.78, -3.19227
1547.72, -3.19198
1547.66, -3.1917
1547.6, -3.19141
1547.54, -3.19113
1547.48, -3.19084
1547.42, -3.19056
1547.36, -3.19027
1547.3, -3.18999
1547.24, -3.1897
1547.19, -3.18941
1547.13, -3.18913
1547.07, -3.18884
1547.01, -3.18856
1546.95, -3.18827
1546.89, -3.18799
1546.83, -3.1877
1546.77, -3.18742
1546.71, -3.18713
1546.65, -3.18685
1546.59, -3.18656
1546.53, -3.18628
1546.47, -3.18599
1546.41, -3.1857
1546.35, -3.18542
1546.29, -3.18513
1546.23, -3.18485
1546.17, -3.18456
1546.11, -3.18428
1546.05, -3.18399
1545.99, -3.18371
1545.93, -3.18342
1545.87, -3.18314
1545.81, -3.18285
1545.75, -3.18257
1545.69, -3.18228
1545.63, -3.182
1545.57, -3.18171
1545.51, -3.18143
1545.45, -3.18114
1545.39, -3.18086
1545.33, -3.18057
1545.27, -3.18029
1545.21, -3.18
1545.16, -3.17972
1545.1, -3.17943
1545.04, -3.17915
1544.98, -3.17886
1544.92, -3.17858
1544.86, -3.17829
1544.8, -3.17801
1544.74, -3.17772
1544.68, -3.17744
1544.62, -3.17715
1544.56, -3.17687
1544.5, -3.17658
1544.44, -3.1763
1544.38, -3.17601
1544.32, -3.17573
1544.26, -3.17544
1544.2, -3.17516
1544.14, -3.17487
1544.08, -3.17459
1544.02, -3.1743
1543.96, -3.17402
1543.9, -3.17373
1543.84, -3.17345
1543.79, -3.17316
1543.73, -3.17288
1543.67, -3.17259
1543.61, -3.17231
1543.55, -3.17202
1543.49, -3.17174
1543.43, -3.17145
1543.37, -3.17153
1543.31, -3.1718
1543.25, -3.17206
1543.19, -3.17233
1543.13, -3.17259
1543.07, -3.17286
1543.01, -3.17312
1542.95, -3.17339
1542.89, -3.17365
1542.83, -3.17392
1542.77, -3.17418
1542.71, -3.17444
1542.65, -3.17471
1542.6, -3.17497
1542.54, -3.17524
1542.48, -3.1755
1542.42, -3.17577
1542.36, -3.17603
1542.3, -3.1763
1542.24, -3.17656
1542.18, -3.17682
1542.12, -3.17709
1542.06, -3.17735
1542, -3.17762
1541.94, -3.17788
1541.88, -3.17815
1541.82, -3.17841
1541.76, -3.17868
1541.7, -3.17894
1541.65, -3.17921
1541.59, -3.17947
1541.53, -3.17974
1541.47, -3.18
1541.41, -3.18027
1541.35, -3.18053
1541.29, -3.18079
1541.23, -3.18106
1541.17, -3.18132
1541.11, -3.18159
1541.05, -3.18185
1540.99, -3.18212
1540.93, -3.18238
1540.87, -3.18265
1540.81, -3.18291
1540.76, -3.18318
1540.7, -3.18344
1540.64, -3.18371
1540.58, -3.18397
1540.52, -3.18424
1540.46, -3.1845
1540.4, -3.18477
1540.34, -3.18503
1540.28, -3.1853
1540.22, -3.18556
1540.16, -3.18583
1540.1, -3.18609
1540.04, -3.18636
1539.99, -3.18662
1539.93, -3.18688
1539.87, -3.18715
1539.81, -3.18741
1539.75, -3.18768
1539.69, -3.18794
1539.63, -3.18821
1539.57, -3.18847
1539.51, -3.18874
1539.45, -3.189
1539.39, -3.18927
1539.33, -3.18953
1539.27, -3.1898
1539.22, -3.19006
1539.16, -3.19033
1539.1, -3.19059
1539.04, -3.19086
1538.98, -3.19112
1538.92, -3.19139
1538.86, -3.19165
1538.8, -3.19192
1538.74, -3.19218
1538.68, -3.19245
1538.62, -3.19271
1538.56, -3.19298
1538.51, -3.19324
1538.45, -3.19373
1538.39, -3.19488
1538.33, -3.19603
1538.27, -3.19718
1538.21, -3.19834
1538.15, -3.19949
1538.09, -3.20064
1538.03, -3.20179
1537.97, -3.20294
1537.91, -3.2041
1537.86, -3.20525
1537.8, -3.2064
1537.74, -3.20755
1537.68, -3.20871
1537.62, -3.20986
1537.56, -3.21101
1537.5, -3.21217
1537.44, -3.21332
1537.38, -3.21447
1537.32, -3.21563
1537.27, -3.21678
1537.21, -3.21794
1537.15, -3.21909
1537.09, -3.22025
1537.03, -3.2214
1536.97, -3.22256
1536.91, -3.22371
1536.85, -3.22487
1536.79, -3.22602
1536.73, -3.22718
1536.68, -3.22833
1536.62, -3.22949
1536.56, -3.23064
1536.5, -3.2318
1536.44, -3.23296
1536.38, -3.23411
1536.32, -3.23527
1536.26, -3.23642
1536.2, -3.23758
1536.14, -3.23874
1536.09, -3.2399
1536.03, -3.24105
1535.97, -3.24221
1535.91, -3.24337
1535.85, -3.24453
1535.79, -3.24568
1535.73, -3.24684
1535.67, -3.248
1535.61, -3.24916
1535.56, -3.25032
1535.5, -3.25148
1535.44, -3.25263
1535.38, -3.25379
1535.32, -3.25495
1535.26, -3.25611
1535.2, -3.25727
1535.14, -3.25843
1535.08, -3.25959
1535.03, -3.26075
1534.97, -3.26191
1534.91, -3.26307
1534.85, -3.26423
1534.79, -3.26539
1534.73, -3.26655
1534.67, -3.26771
1534.61, -3.26887
1534.56, -3.27003
1534.5, -3.2712
1534.44, -3.27236
1534.38, -3.27352
1534.32, -3.27468
1534.26, -3.27584
1534.2, -3.27701
1534.14, -3.27817
1534.09, -3.27933
1534.03, -3.28049
1533.97, -3.28165
1533.91, -3.28282
1533.85, -3.28398
1533.79, -3.28514
1533.73, -3.28631
1533.67, -3.28747
1533.62, -3.28863
1533.56, -3.2898
1533.5, -3.29089
1533.44, -3.29197
1533.38, -3.29305
1533.32, -3.29413
1533.26, -3.29521
1533.2, -3.29629
1533.15, -3.29737
1533.09, -3.29845
1533.03, -3.29952
1532.97, -3.3006
1532.91, -3.30168
1532.85, -3.30276
1532.79, -3.30384
1532.73, -3.30492
1532.68, -3.30601
1532.62, -3.30709
1532.56, -3.30817
1532.5, -3.30925
1532.44, -3.31033
1532.38, -3.31141
1532.32, -3.31249
1532.27, -3.31357
1532.21, -3.31465
1532.15, -3.31574
1532.09, -3.31682
1532.03, -3.3179
1531.97, -3.31898
1531.91, -3.32006
1531.85, -3.32115
1531.8, -3.32223
1531.74, -3.32331
1531.68, -3.32439
1531.62, -3.32548
1531.56, -3.32656
1531.5, -3.32764
1531.44, -3.32873
1531.39, -3.32981
1531.33, -3.33089
1531.27, -3.33198
1531.21, -3.33306
1531.15, -3.33414
1531.09, -3.33523
1531.03, -3.33631
1530.98, -3.3374
1530.92, -3.33848
1530.86, -3.33957
1530.8, -3.34065
1530.74, -3.34174
1530.68, -3.34282
1530.63, -3.34391
1530.57, -3.34499
1530.51, -3.34608
1530.45, -3.34716
1530.39, -3.34825
1530.33, -3.34933
1530.27, -3.35042
1530.22, -3.35151
1530.16, -3.35259
1530.1, -3.35368
1530.04, -3.35477
1529.98, -3.35585
1529.92, -3.35694
1529.87, -3.35803
1529.81, -3.35911
1529.75, -3.3602
1529.69, -3.36129
1529.63, -3.36238
1529.57, -3.36346
1529.51, -3.36455
1529.46, -3.36564
1529.4, -3.36673
1529.34, -3.36782
1529.28, -3.3689
1529.22, -3.36999
1529.16, -3.37108
1529.11, -3.37217
1529.05, -3.37326
1528.99, -3.37435
1528.93, -3.37544
1528.87, -3.37653
1528.81, -3.37761
1528.76, -3.3787
1528.7, -3.37979
1528.64, -3.38063
1528.58, -3.38111
1528.52, -3.38159
1528.46, -3.38207
1528.41, -3.38255
1528.35, -3.38303
1528.29, -3.38351
1528.23, -3.38399
1528.17, -3.38447
1528.11, -3.38495
1528.06, -3.38543
1528, -3.38591
1527.94, -3.38639
1527.88, -3.38686
1527.82, -3.38734
1527.76, -3.38782
1527.71, -3.3883
1527.65, -3.38878
1527.59, -3.38926
1527.53, -3.38974
1527.47, -3.39022
1527.41, -3.3907
1527.36, -3.39118
1527.3, -3.39166
1527.24, -3.39214
1527.18, -3.39262
1527.12, -3.3931
1527.06, -3.39358
1527.01, -3.39406
1526.95, -3.39454
1526.89, -3.39502
1526.83, -3.3955
1526.77, -3.39598
1526.72, -3.39646
1526.66, -3.39694
1526.6, -3.39742
1526.54, -3.3979
1526.48, -3.39838
1526.42, -3.39886
1526.37, -3.39934
1526.31, -3.39982
1526.25, -3.4003
1526.19, -3.40078
1526.13, -3.40126
1526.08, -3.40174
1526.02, -3.40222
1525.96, -3.4027
1525.9, -3.40318
1525.84, -3.40366
1525.78, -3.40414
1525.73, -3.40462
1525.67, -3.4051
1525.61, -3.40558
1525.55, -3.40607
1525.49, -3.40655
1525.44, -3.40703
1525.38, -3.40751
1525.32, -3.40799
1525.26, -3.40847
1525.2, -3.40895
1525.15, -3.40943
1525.09, -3.40991
1525.03, -3.41039
1524.97, -3.41087
1524.91, -3.41135
1524.85, -3.41183
1524.8, -3.41231
1524.74, -3.4128
1524.68, -3.41328
1524.62, -3.41376
1524.56, -3.41424
1524.51, -3.41472
1524.45, -3.4152
1524.39, -3.41568
1524.33, -3.41616
1524.27, -3.41664
1524.22, -3.41712
1524.16, -3.41761
1524.1, -3.41809
1524.04, -3.41857
1523.98, -3.41905
1523.93, -3.41953
1523.87, -3.42001
1523.81, -3.42049
1523.75, -3.4214
1523.69, -3.42232
1523.64, -3.42324
1523.58, -3.42415
1523.52, -3.42507
1523.46, -3.42599
1523.4, -3.4269
1523.35, -3.42782
1523.29, -3.42874
1523.23, -3.42965
1523.17, -3.43057
1523.11, -3.43149
1523.06, -3.4324
1523, -3.43332
1522.94, -3.43424
1522.88, -3.43516
1522.82, -3.43607
1522.77, -3.43699
1522.71, -3.43791
1522.65, -3.43883
1522.59, -3.43974
1522.54, -3.44066
1522.48, -3.44158
1522.42, -3.4425
1522.36, -3.44342
1522.3, -3.44434
1522.25, -3.44525
1522.19, -3.44617
1522.13, -3.44709
1522.07, -3.44801
1522.01, -3.44893
1521.96, -3.44985
1521.9, -3.45077
1521.84, -3.45169
1521.78, -3.45261
1521.73, -3.45353
1521.67, -3.45444
1521.61, -3.45536
1521.55, -3.45628
1521.49, -3.4572
1521.44, -3.45812
1521.38, -3.45904
1521.32, -3.45996
1521.26, -3.46088
1521.21, -3.4618
1521.15, -3.46272
1521.09, -3.46364
1521.03, -3.46457
1520.97, -3.46549
1520.92, -3.46641
1520.86, -3.46733
1520.8, -3.46825
1520.74, -3.46917
1520.69, -3.47009
1520.63, -3.47101
1580.59, -3.29722
1580.53, -3.29614
1580.47, -3.29506
1580.4, -3.29398
1580.34, -3.29289
1580.28, -3.29181
1580.22, -3.29073
1580.16, -3.28965
1580.09, -3.28857
1580.03, -3.28749
1579.97, -3.2864
1579.91, -3.28532
1579.84, -3.28424
1579.78, -3.28316
1579.72, -3.28208
1579.66, -3.281
1579.59, -3.27992
1579.53, -3.27884
1579.47, -3.27776
1579.41, -3.27668
1579.35, -3.2756
1579.28, -3.27452
1579.22, -3.27344
1579.16, -3.27236
1579.1, -3.27128
1579.03, -3.2702
1578.97, -3.26912
1578.91, -3.26851
1578.85, -3.2682
1578.78, -3.26788
1578.72, -3.26757
1578.66, -3.26725
1578.6, -3.26694
1578.54, -3.26662
1578.47, -3.26631
1578.41, -3.26599
1578.35, -3.26568
1578.29, -3.26537
1578.22, -3.26505
1578.16, -3.26474
1578.1, -3.26442
1578.04, -3.26411
1577.98, -3.26379
1577.91, -3.26348
1577.85, -3.26316
1577.79, -3.26285
1577.73, -3.26254
1577.67, -3.26222
1577.6, -3.26191
1577.54, -3.26159
1577.48, -3.26128
1577.42, -3.26096
1577.35, -3.26065
1577.29, -3.26033
1577.23, -3.26002
1577.17, -3.25971
1577.11, -3.25939
1577.04, -3.25908
1576.98, -3.25876
1576.92, -3.25845
1576.86, -3.25813
1576.8, -3.25782
1576.73, -3.25751
1576.67, -3.25719
1576.61, -3.25688
1576.55, -3.25656
1576.48, -3.25625
1576.42, -3.25594
1576.36, -3.25562
1576.3, -3.25531
1576.24, -3.25499
1576.17, -3.25468
1576.11, -3.25436
1576.05, -3.25405
1575.99, -3.25374
1575.93, -3.25342
1575.86, -3.25311
1575.8, -3.25279
1575.74, -3.25248
1575.68, -3.25217
1575.62, -3.25185
1575.55, -3.25154
1575.49, -3.25122
1575.43, -3.25091
1575.37, -3.2506
1575.31, -3.25028
1575.24, -3.24997
1575.18, -3.24965
1575.12, -3.24934
1575.06, -3.24903
1575, -3.24871
1574.93, -3.2484
1574.87, -3.24809
1574.81, -3.24777
1574.75, -3.24746
1574.69, -3.24714
1574.63, -3.24683
1574.56, -3.24652
1574.5, -3.2462
1574.44, -3.24589
1574.38, -3.24557
1574.32, -3.24526
1574.25, -3.24495
1574.19, -3.24463
1574.13, -3.24432
1574.07, -3.24401
1574.01, -3.24369
1573.94, -3.24338
1573.88, -3.24306
1573.82, -3.24275
1573.76, -3.24239
1573.7, -3.2418
1573.63, -3.24122
1573.57, -3.24064
1573.51, -3.24006
1573.45, -3.23948
1573.39, -3.2389
1573.33, -3.23832
1573.26, -3.23773
1573.2, -3.23715
1573.14, -3.23657
1573.08, -3.23599
1573.02, -3.23541
1572.95, -3.23483
1572.89, -3.23425
1572.83, -3.23367
1572.77, -3.23308
1572.71, -3.2325
1572.65, -3.23192
1572.58, -3.23134
1572.52, -3.23076
1572.46, -3.23018
1572.4, -3.2296
1572.34, -3.22902
1572.28, -3.22844
1572.21, -3.22786
1572.15, -3.22728
1572.09, -3.22669
1572.03, -3.22611
1571.97, -3.22553
1571.91, -3.22495
1571.84, -3.22437
1571.78, -3.22379
1571.72, -3.22321
1571.66, -3.22263
1571.6, -3.22205
1571.54, -3.22147
1571.47, -3.22089
1571.41, -3.22031
1571.35, -3.21973
1571.29, -3.21915
1571.23, -3.21857
1571.17, -3.21799
1571.1, -3.21741
1571.04, -3.21683
1570.98, -3.21625
1570.92, -3.21567
1570.86, -3.21509
1570.8, -3.21451
1570.73, -3.21393
1570.67, -3.21335
1570.61, -3.21277
1570.55, -3.21219
1570.49, -3.21161
1570.43, -3.21103
1570.36, -3.21045
1570.3, -3.20987
1570.24, -3.20929
1570.18, -3.20871
1570.12, -3.20813
1570.06, -3.20755
1569.99, -3.20698
1569.93, -3.2064
1569.87, -3.20582
1569.81, -3.20524
1569.75, -3.20466
1569.69, -3.20408
1569.63, -3.2035
1569.56, -3.20292
1569.5, -3.20234
1569.44, -3.20176
1569.38, -3.20118
1569.32, -3.20061
1569.26, -3.20003
1569.19, -3.19945
1569.13, -3.19887
1569.07, -3.19829
1569.01, -3.19771
1568.95, -3.19713
1568.89, -3.19655
1568.83, -3.19598
1568.76, -3.1954
1568.7, -3.19482
1568.64, -3.19424
1568.58, -3.1933
1568.52, -3.19226
1568.46, -3.19121
1568.4, -3.19017
1568.33, -3.18912
1568.27, -3.18808
1568.21, -3.18703
1568.15, -3.18599
1568.09, -3.18494
1568.03, -3.1839
1567.97, -3.18285
1567.9, -3.18181
1567.84, -3.18077
1567.78, -3.17972
1567.72, -3.17868
1567.66, -3.17763
1567.6, -3.17659
1567.54, -3.17555
1567.47, -3.1745
1567.41, -3.17346
1567.35, -3.17242
1567.29, -3.17138
1567.23, -3.17033
1567.17, -3.16929
1567.11, -3.16825
1567.05, -3.16721
1566.98, -3.16616
1566.92, -3.16512
1566.86, -3.16408
1566.8, -3.16304
1566.74, -3.162
1566.68, -3.16095
1566.62, -3.15991
1566.55, -3.15887
1566.49, -3.15783
1566.43, -3.15679
1566.37, -3.15575
1566.31, -3.15471
1566.25, -3.15367
1566.19, -3.15263
1566.13, -3.15158
1566.06, -3.15054
1566, -3.1495
1565.94, -3.14846
1565.88, -3.14742
1565.82, -3.14638
1565.76, -3.14534
1565.7, -3.14431
1565.64, -3.14327
1565.57, -3.14223
1565.51, -3.14119
1565.45, -3.14015
1565.39, -3.13911
1565.33, -3.13807
1565.27, -3.13703
1565.21, -3.13599
1565.15, -3.13495
1565.09, -3.13392
1565.02, -3.13288
1564.96, -3.13184
1564.9, -3.1308
1564.84, -3.12976
1564.78, -3.12873
1564.72, -3.12769
1564.66, -3.12665
1564.6, -3.12561
1564.54, -3.12458
1564.47, -3.12354
1564.41, -3.1225
1564.35, -3.12147
1564.29, -3.12043
1564.23, -3.11939
1564.17, -3.11836
1564.11, -3.11732
1564.05, -3.11628
1563.99, -3.11525
1563.92, -3.11421
1563.86, -3.11318
1563.8, -3.11214
1563.74, -3.1111
1563.68, -3.11007
1563.62, -3.10903
1563.56, -3.108
1563.5, -3.10714
1563.44, -3.10663
1563.37, -3.10611
1563.31, -3.1056
1563.25, -3.10508
1563.19, -3.10457
1563.13, -3.10405
1563.07, -3.10354
1563.01, -3.10302
1562.95, -3.10251
1562.89, -3.10199
1562.83, -3.10148
1562.76, -3.10096
1562.7, -3.10045
1562.64, -3.09993
1562.58, -3.09942
1562.52, -3.0989
1562.46, -3.09839
1562.4, -3.09787
1562.34, -3.09736
1562.28, -3.09684
1562.22, -3.09633
1562.15, -3.09581
1562.09, -3.0953
1562.03, -3.09478
1561.97, -3.09427
1561.91, -3.09375
1561.85, -3.09324
1561.79, -3.09273
1561.73, -3.09221
1561.67, -3.0917
1561.61, -3.09118
1561.55, -3.09067
1561.48, -3.09015
1561.42, -3.08964
1561.36, -3.08912
1561.3, -3.08861
1561.24, -3.0881
1561.18, -3.08758
1561.12, -3.08707
1561.06, -3.08655
1561, -3.08604
1560.94, -3.08552
1560.88, -3.08501
1560.81, -3.0845
1560.75, -3.08398
1560.69, -3.08347
1560.63, -3.08295
1560.57, -3.08244
1560.51, -3.08193
1560.45, -3.08141
1560.39, -3.0809
1560.33, -3.08039
1560.27, -3.07987
1560.21, -3.07936
1560.15, -3.07884
1560.09, -3.07833
1560.02, -3.07782
1559.96, -3.0773
1559.9, -3.07679
1559.84, -3.07628
1559.78, -3.07576
1559.72, -3.07525
1559.66, -3.07474
1559.6, -3.07422
1559.54, -3.07371
1559.48, -3.07319
1559.42, -3.07268
1559.36, -3.07217
1559.3, -3.07165
1559.23, -3.07114
1559.17, -3.07063
1559.11, -3.07011
1559.05, -3.0696
1558.99, -3.06909
1558.93, -3.06858
1558.87, -3.06806
1558.81, -3.06755
1558.75, -3.06704
1558.69, -3.06652
1558.63, -3.06601
1558.57, -3.0655
1558.51, -3.06498
1558.45, -3.06447
1558.39, -3.06475
1558.32, -3.06508
1558.26, -3.06541
1558.2, -3.06574
1558.14, -3.06607
1558.08, -3.06641
1558.02, -3.06674
1557.96, -3.06707
1557.9, -3.0674
1557.84, -3.06774
1557.78, -3.06807
1557.72, -3.0684
1557.66, -3.06873
1557.6, -3.06906
1557.54, -3.0694
1557.48, -3.06973
1557.42, -3.07006
1557.35, -3.07039
1557.29, -3.07073
1557.23, -3.07106
1557.17, -3.07139
1557.11, -3.07172
1557.05, -3.07206
1556.99, -3.07239
1556.93, -3.07272
1556.87, -3.07305
1556.81, -3.07339
1556.75, -3.07372
1556.69, -3.07405
1556.63, -3.07438
1556.57, -3.07472
1556.51, -3.07505
1556.45, -3.07538
1556.39, -3.07571
1556.33, -3.07605
1556.27, -3.07638
1556.2, -3.07671
1556.14, -3.07705
1556.08, -3.07738
1556.02, -3.07771
1555.96, -3.07804
1555.9, -3.07838
1555.84, -3.07871
1555.78, -3.07904
1555.72, -3.07937
1555.66, -3.07971
1555.6, -3.08004
1555.54, -3.08037
1555.48, -3.08071
1555.42, -3.08104
1555.36, -3.08137
1555.3, -3.0817
1555.24, -3.08204
1555.18, -3.08237
1555.12, -3.0827
1555.06, -3.08304
1555, -3.08337
1554.94, -3.0837
1554.88, -3.08403
1554.81, -3.08437
1554.75, -3.0847
1554.69, -3.08503
1554.63, -3.08537
1554.57, -3.0857
1554.51, -3.08603
1554.45, -3.08637
1554.39, -3.0867
1554.33, -3.08703
1554.27, -3.08736
1554.21, -3.0877
1554.15, -3.08803
1554.09, -3.08836
1554.03, -3.0887
1553.97, -3.08903
1553.91, -3.08936
1553.85, -3.0897
1553.79, -3.09003
1553.73, -3.09036
1553.67, -3.0907
1553.61, -3.09103
1553.55, -3.09136
1553.49, -3.0917
1553.43, -3.09203
1553.37, -3.09236
1553.31, -3.09269
1553.25, -3.09303
1553.19, -3.09336
1553.13, -3.09369
1553.07, -3.09403
1553.01, -3.09436
1552.95, -3.09469
1552.89, -3.09503
1552.83, -3.09536
1552.76, -3.09569
1552.7, -3.09603
1552.64, -3.09636
1552.58, -3.09669
1552.52, -3.09703
1552.46, -3.09736
1552.4, -3.0977
1552.34, -3.09803
1552.28, -3.09836
1552.22, -3.0987
1552.16, -3.09903
1552.1, -3.09936
1552.04, -3.0997
1551.98, -3.10003
1551.92, -3.10036
1551.86, -3.1007
1551.8, -3.10103
1551.74, -3.10136
1551.68, -3.1017
1551.62, -3.10203
1551.56, -3.10236
1551.5, -3.1027
1551.44, -3.10303
1551.38, -3.10337
1551.32, -3.1037
1551.26, -3.10403
1551.2, -3.10437
1551.14, -3.1047
1551.08, -3.10503
1551.02, -3.10537
1550.96, -3.1057
1550.9, -3.10604
1550.84, -3.10637
1550.78, -3.1067
1550.72, -3.10704
1550.66, -3.10737
1550.6, -3.1077
1550.54, -3.10804
1550.48, -3.10837
1550.42, -3.10871
1550.36, -3.10904
1550.3, -3.10937
1550.24, -3.10971
1550.18, -3.11004
1550.12, -3.11038
1550.06, -3.11071
1550, -3.11104
1549.94, -3.11138
1549.88, -3.11171
1549.82, -3.11204
1549.76, -3.11238
1549.7, -3.11271
1549.64, -3.11305
1549.58, -3.11338
1549.52, -3.11371
1549.46, -3.11405
1549.4, -3.11438
1549.34, -3.11472
1549.28, -3.11505
1549.22, -3.11539
1549.16, -3.11572
1549.1, -3.11605
1549.04, -3.11639
1548.98, -3.11672
1548.92, -3.11706
1548.86, -3.11739
1548.8, -3.11772
1548.74, -3.11806
1548.68, -3.11839
1548.62, -3.11873
1548.56, -3.11906
1548.5, -3.11842
1548.44, -3.1173
1548.38, -3.11615
1548.32, -3.1146
1548.26, -3.11304
1548.2, -3.11225
1548.14, -3.11221
1548.08, -3.11217
1548.02, -3.11213
1547.96, -3.11209
1547.9, -3.11205
1547.84, -3.11201
1547.78, -3.11197
1547.72, -3.11193
1547.66, -3.11189
1547.6, -3.11185
1547.54, -3.1118
1547.48, -3.11176
1547.42, -3.11172
1547.36, -3.11168
1547.3, -3.11164
1547.24, -3.1116
1547.19, -3.11156
1547.13, -3.11152
1547.07, -3.11148
1547.01, -3.11144
1546.95, -3.1114
1546.89, -3.11136
1546.83, -3.11132
1546.77, -3.11128
1546.71, -3.11124
1546.65, -3.11119
1546.59, -3.11115
1546.53, -3.11111
1546.47, -3.11107
1546.41, -3.11103
1546.35, -3.11099
1546.29, -3.11095
1546.23, -3.11091
1546.17, -3.11087
1546.11, -3.11083
1546.05, -3.11079
1545.99, -3.11075
1545.93, -3.11071
1545.87, -3.11067
1545.81, -3.11062
1545.75, -3.11058
1545.69, -3.11054
1545.63, -3.1105
1545.57, -3.11046
1545.51, -3.11042
1545.45, -3.11038
1545.39, -3.11034
1545.33, -3.1103
1545.27, -3.11026
1545.21, -3.11022
1545.16, -3.11018
1545.1, -3.11014
1545.04, -3.1101
1544.98, -3.11006
1544.92, -3.11001
1544.86, -3.10997
1544.8, -3.10993
1544.74, -3.10989
1544.68, -3.10985
1544.62, -3.10981
1544.56, -3.10977
1544.5, -3.10973
1544.44, -3.10969
1544.38, -3.10965
1544.32, -3.10961
1544.26, -3.10957
1544.2, -3.10953
1544.14, -3.10949
1544.08, -3.10944
1544.02, -3.1094
1543.96, -3.10936
1543.9, -3.10932
1543.84, -3.10928
1543.79, -3.10924
1543.73, -3.1092
1543.67, -3.10916
1543.61, -3.10912
1543.55, -3.10908
1543.49, -3.10904
1543.43, -3.109
1543.37, -3.10927
1543.31, -3.1097
1543.25, -3.11013
1543.19, -3.11055
1543.13, -3.11098
1543.07, -3.11141
1543.01, -3.11184
1542.95, -3.11227
1542.89, -3.11269
1542.83, -3.11312
1542.77, -3.11355
1542.71, -3.11398
1542.65, -3.11441
1542.6, -3.11484
1542.54, -3.11526
1542.48, -3.11569
1542.42, -3.11612
1542.36, -3.11655
1542.3, -3.11698
1542.24, -3.11741
1542.18, -3.11783
1542.12, -3.11826
1542.06, -3.11869
1542, -3.11912
1541.94, -3.11955
1541.88, -3.11998
1541.82, -3.1204
1541.76, -3.12083
1541.7, -3.12126
1541.65, -3.12169
1541.59, -3.12212
1541.53, -3.12255
1541.47, -3.12298
1541.41, -3.1234
1541.35, -3.12383
1541.29, -3.12426
1541.23, -3.12469
1541.17, -3.12512
1541.11, -3.12555
1541.05, -3.12598
1540.99, -3.1264
1540.93, -3.12683
1540.87, -3.12726
1540.81, -3.12769
1540.76, -3.12812
1540.7, -3.12855
1540.64, -3.12898
1540.58, -3.12941
1540.52, -3.12984
1540.46, -3.13026
1540.4, -3.13069
1540.34, -3.13112
1540.28, -3.13155
1540.22, -3.13198
1540.16, -3.13241
1540.1, -3.13284
1540.04, -3.13327
1539.99, -3.1337
1539.93, -3.13413
1539.87, -3.13456
1539.81, -3.13498
1539.75, -3.13541
1539.69, -3.13584
1539.63, -3.13627
1539.57, -3.1367
1539.51, -3.13713
1539.45, -3.13756
1539.39, -3.13799
1539.33, -3.13842
1539.27, -3.13885
1539.22, -3.13928
1539.16, -3.13971
1539.1, -3.14014
1539.04, -3.14057
1538.98, -3.141
1538.92, -3.14142
1538.86, -3.14185
1538.8, -3.14228
1538.74, -3.14271
1538.68, -3.14314
1538.62, -3.14357
1538.56, -3.144
1538.51, -3.14443
1538.45, -3.14509
1538.39, -3.14644
1538.33, -3.14779
1538.27, -3.14914
1538.21, -3.15048
1538.15, -3.15183
1538.09, -3.15318
1538.03, -3.15453
1537.97, -3.15588
1537.91, -3.15723
1537.86, -3.15858
1537.8, -3.15993
1537.74, -3.16128
1537.68, -3.16263
1537.62, -3.16398
1537.56, -3.16533
1537.5, -3.16669
1537.44, -3.16804
1537.38, -3.16939
1537.32, -3.17074
1537.27, -3.17209
1537.21, -3.17344
1537.15, -3.1748
1537.09, -3.17615
1537.03, -3.1775
1536.97, -3.17886
1536.91, -3.18021
1536.85, -3.18156
1536.79, -3.18292
1536.73, -3.18427
1536.68, -3.18562
1536.62, -3.18698
1536.56, -3.18833
1536.5, -3.18969
1536.44, -3.19104
1536.38, -3.1924
1536.32, -3.19375
1536.26, -3.19511
1536.2, -3.19646
1536.14, -3.19782
1536.09, -3.19918
1536.03, -3.20053
1535.97, -3.20189
1535.91, -3.20325
1535.85, -3.2046
1535.79, -3.20596
1535.73, -3.20732
1535.67, -3.20868
1535.61, -3.21003
1535.56, -3.21139
1535.5, -3.21275
1535.44, -3.21411
1535.38, -3.21547
1535.32, -3.21683
1535.26, -3.21819
1535.2, -3.21955
1535.14, -3.22091
1535.08, -3.22227
1535.03, -3.22363
1534.97, -3.22499
1534.91, -3.22635
1534.85, -3.22771
1534.79, -3.22907
1534.73, -3.23043
1534.67, -3.23179
1534.61, -3.23315
1534.56, -3.23451
1534.5, -3.23588
1534.44, -3.23724
1534.38, -3.2386
1534.32, -3.23996
1534.26, -3.24133
1534.2, -3.24269
1534.14, -3.24405
1534.09, -3.24542
1534.03, -3.24678
1533.97, -3.24814
1533.91, -3.24951
1533.85, -3.25087
1533.79, -3.25224
1533.73, -3.2536
1533.67, -3.25497
1533.62, -3.25633
1533.56, -3.2577
1533.5, -3.259
1533.44, -3.2603
1533.38, -3.2616
1533.32, -3.26289
1533.26, -3.26419
1533.2, -3.26549
1533.15, -3.26679
1533.09, -3.26808
1533.03, -3.26938
1532.97, -3.27068
1532.91, -3.27198
1532.85, -3.27328
1532.79, -3.27457
1532.73, -3.27587
1532.68, -3.27717
1532.62, -3.27847
1532.56, -3.27977
1532.5, -3.28107
1532.44, -3.28237
1532.38, -3.28367
1532.32, -3.28497
1532.27, -3.28627
1532.21, -3.28757
1532.15, -3.28887
1532.09, -3.29017
1532.03, -3.29147
1531.97, -3.29277
1531.91, -3.29407
1531.85, -3.29538
1531.8, -3.29668
1531.74, -3.29798
1531.68, -3.29928
1531.62, -3.30058
1531.56, -3.30189
1531.5, -3.30319
1531.44, -3.30449
1531.39, -3.3058
1531.33, -3.3071
1531.27, -3.3084
1531.21, -3.30971
1531.15, -3.31101
1531.09, -3.31231
1531.03, -3.31362
1530.98, -3.31492
1530.92, -3.31623
1530.86, -3.31753
1530.8, -3.31884
1530.74, -3.32014
1530.68, -3.32145
1530.63, -3.32275
1530.57, -3.32406
1530.51, -3.32537
1530.45, -3.32667
1530.39, -3.32798
1530.33, -3.32929
1530.27, -3.33059
1530.22, -3.3319
1530.16, -3.33321
1530.1, -3.33451
1530.04, -3.33582
1529.98, -3.33713
1529.92, -3.33844
1529.87, -3.33975
1529.81, -3.34105
1529.75, -3.34236
1529.69, -3.34367
1529.63, -3.34498
1529.57, -3.34629
1529.51, -3.3476
1529.46, -3.34891
1529.4, -3.35022
1529.34, -3.35153
1529.28, -3.35284
1529.22, -3.35415
1529.16, -3.35546
1529.11, -3.35677
1529.05, -3.35808
1528.99, -3.35939
1528.93, -3.3607
1528.87, -3.36202
1528.81, -3.36333
1528.76, -3.36464
1528.7, -3.36595
1528.64, -3.36697
1528.58, -3.36755
1528.52, -3.36814
1528.46, -3.36873
1528.41, -3.36931
1528.35, -3.3699
1528.29, -3.37049
1528.23, -3.37108
1528.17, -3.37166
1528.11, -3.37225
1528.06, -3.37284
1528, -3.37343
1527.94, -3.37401
1527.88, -3.3746
1527.82, -3.37519
1527.76, -3.37577
1527.71, -3.37636
1527.65, -3.37695
1527.59, -3.37754
1527.53, -3.37812
1527.47, -3.37871
1527.41, -3.3793
1527.36, -3.37989
1527.3, -3.38048
1527.24, -3.38106
1527.18, -3.38165
1527.12, -3.38224
1527.06, -3.38283
1527.01, -3.38342
1526.95, -3.384
1526.89, -3.38459
1526.83, -3.38518
1526.77, -3.38577
1526.72, -3.38636
1526.66, -3.38694
1526.6, -3.38753
1526.54, -3.38812
1526.48, -3.38871
1526.42, -3.3893
1526.37, -3.38989
1526.31, -3.39047
1526.25, -3.39106
1526.19, -3.39165
1526.13, -3.39224
1526.08, -3.39283
1526.02, -3.39342
1525.96, -3.39401
1525.9, -3.39459
1525.84, -3.39518
1525.78, -3.39577
1525.73, -3.39636
1525.67, -3.39695
1525.61, -3.39754
1525.55, -3.39813
1525.49, -3.39872
1525.44, -3.39931
1525.38, -3.39989
1525.32, -3.40048
1525.26, -3.40107
1525.2, -3.40166
1525.15, -3.40225
1525.09, -3.40284
1525.03, -3.40343
1524.97, -3.40402
1524.91, -3.40461
1524.85, -3.4052
1524.8, -3.40579
1524.74, -3.40638
1524.68, -3.40697
1524.62, -3.40756
1524.56, -3.40815
1524.51, -3.40874
1524.45, -3.40933
1524.39, -3.40991
1524.33, -3.4105
1524.27, -3.41109
1524.22, -3.41168
1524.16, -3.41227
1524.1, -3.41286
1524.04, -3.41345
1523.98, -3.41404
1523.93, -3.41463
1523.87, -3.41522
1523.81, -3.41581
1523.75, -3.41667
1523.69, -3.41753
1523.64, -3.41839
1523.58, -3.41925
1523.52, -3.42011
1523.46, -3.42097
1523.4, -3.42183
1523.35, -3.42269
1523.29, -3.42356
1523.23, -3.42442
1523.17, -3.42528
1523.11, -3.42614
1523.06, -3.427
1523, -3.42786
1522.94, -3.42872
1522.88, -3.42958
1522.82, -3.43044
1522.77, -3.43131
1522.71, -3.43217
1522.65, -3.43303
1522.59, -3.43389
1522.54, -3.43475
1522.48, -3.43562
1522.42, -3.43648
1522.36, -3.43734
1522.3, -3.4382
1522.25, -3.43906
1522.19, -3.43993
1522.13, -3.44079
1522.07, -3.44165
1522.01, -3.44251
1521.96, -3.44338
1521.9, -3.44424
1521.84, -3.4451
1521.78, -3.44597
1521.73, -3.44683
1521.67, -3.44769
1521.61, -3.44855
1521.55, -3.44942
1521.49, -3.45028
1521.44, -3.45114
1521.38, -3.45201
1521.32, -3.45287
1521.26, -3.45374
1521.21, -3.4546
1521.15, -3.45546
1521.09, -3.45633
1521.03, -3.45719
1520.97, -3.45806
1520.92, -3.45892
1520.86, -3.45978
1520.8, -3.46065
1520.74, -3.46151
1520.69, -3.46238
1520.63, -3.46324


